#                                                           
# ooooo   oooo ..     ooo        ooo ooooooooo.    .oooo.   
#  `88.   .8" .88.    `88.       .88 `88"   `Y8b  dP"  `Yb  
#   `88. .8" .8"88.    888b     d"88  88     888 88      88 
#    `88.8" .8" `88.   8 Y88. .P  88  88oooo888" 88      88 
#     `88" .88ooo888.  8  `888"   88  88    `88b 88      88 
#      88 .8"     `88. 8    Y     88  88    .88P `8b    d8" 
#     o88o88o      888o8          88 o88bood8P"   `Ybod8P"  
#                                                           
#                                                           
#               GPL Version 4.1.4 Revision 76               
#                         MPI Build                         
#                 http://www.yambo-code.org                 
#
# BSK|Identifier              :1891
#    |Dimension               :11943
#    |Bands                   :121 - 172
#    |Exchange           [res]: yes
#    |Correlation        [res]: yes
#    |Kernel`s coupling       : no
#    |Exchange           [cpl]: no
#    |Correlation        [cpl]: no
#    |W interaction is bare   : no
#    |ALDA kernel in R-space  : no
#    |RL vectors    [exchange]:31669
#    |RL vectors [correlation]:387
#    |E/h energy range    [ev]:-1.000000 - -1.000000
#    |Coupling range     [o/o]: 100.0000 -  100.0000
#  W |Interaction is diagonal : no
#    |Matrix size             :2845
#    |Bands                   :1 - 570
#    |e/h energy range    [ev]:-1.000000 - -1.000000
#    |Poles              [o/o]: 100.0000
#    |RL vectors in the sum   :31669
#    |[r,Vnl] included        : yes
#    |Field direction         :-.8660E-5 0.5000E-5  0.000000
#    |Coulomb Cutoff          :box z
#    |xc-Kernel               :none
# RIM|RL components      [col]:0
#    |Random points      [col]:0
#
# Electron-Hole pairs that contributes to Excitonic State 8 more than 5%
#
#  E    [eV]  Amplitude
#  
    1.5162     0.0056
    1.5194     0.0056
    1.5226     0.0057
    1.5258     0.0058
    1.5290     0.0058
    1.5322     0.0059
    1.5354     0.0060
    1.5386     0.0060
    1.5418     0.0061
    1.5450     0.0062
    1.5482     0.0062
    1.5514     0.0063
    1.5546     0.0064
    1.5578     0.0064
    1.5611     0.0065
    1.5643     0.0066
    1.5675     0.0067
    1.5707     0.0068
    1.5739     0.0068
    1.5771     0.0069
    1.5803     0.0070
    1.5835     0.0071
    1.5867     0.0072
    1.5899     0.0073
    1.5931     0.0074
    1.5963     0.0075
    1.5995     0.0076
    1.6027     0.0077
    1.6060     0.0078
    1.6092     0.0079
    1.6124     0.0080
    1.6156     0.0081
    1.6188     0.0082
    1.6220     0.0083
    1.6252     0.0084
    1.6284     0.0085
    1.6316     0.0087
    1.6348     0.0088
    1.6380     0.0089
    1.6412     0.0090
    1.6444     0.0092
    1.6477     0.0093
    1.6509     0.0094
    1.6541     0.0096
    1.6573     0.0097
    1.6605     0.0099
   1.66369    0.01004
   1.66689    0.01019
   1.67010    0.01036
   1.67331    0.01052
   1.67652    0.01069
   1.67972    0.01087
   1.68293    0.01105
   1.68614    0.01123
   1.68935    0.01142
   1.69255    0.01162
   1.69576    0.01182
   1.69897    0.01202
   1.70217    0.01223
   1.70538    0.01245
   1.70859    0.01268
   1.71180    0.01291
   1.71500    0.01315
   1.71821    0.01339
   1.72142    0.01364
   1.72463    0.01391
   1.72783    0.01417
   1.73104    0.01445
   1.73425    0.01474
   1.73745    0.01503
   1.74066    0.01534
   1.74387    0.01565
   1.74708    0.01598
   1.75028    0.01631
   1.75349    0.01666
   1.75670    0.01702
   1.75990    0.01740
   1.76311    0.01778
   1.76632    0.01818
   1.76953    0.01860
   1.77273    0.01903
   1.77594    0.01947
   1.77915    0.01994
   1.78236    0.02042
   1.78556    0.02092
   1.78877    0.02143
   1.79198    0.02197
   1.79518    0.02254
   1.79839    0.02312
   1.80160    0.02373
   1.80481    0.02436
   1.80801    0.02503
   1.81122    0.02572
   1.81443    0.02644
   1.81764    0.02719
   1.82084    0.02798
   1.82405    0.02880
   1.82726    0.02967
   1.83046    0.03057
   1.83367    0.03152
   1.83688    0.03252
   1.84009    0.03356
   1.84329    0.03466
   1.84650    0.03582
   1.84971    0.03703
   1.85291    0.03831
   1.85612    0.03967
   1.85933    0.04109
   1.86254    0.04260
   1.86574    0.04420
   1.86895    0.04589
   1.87216    0.04768
   1.87537    0.04958
   1.87857    0.05160
   1.88178    0.05375
   1.88499    0.05604
   1.88819    0.05848
   1.89140    0.06109
   1.89461    0.06388
   1.89782    0.06686
   1.90102    0.07007
   1.90423    0.07351
   1.90744    0.07721
   1.91065    0.08120
   1.91385    0.08551
   1.91706    0.09017
   1.92027    0.09523
  1.923474   0.100713
  1.926682   0.106683
  1.929889   0.113192
  1.933096   0.120305
  1.936303   0.128095
  1.939511   0.136646
  1.942718   0.146053
  1.945925   0.156429
  1.949132   0.167900
  1.952340   0.180612
  1.955547   0.194734
  1.958754   0.210457
  1.961961   0.228003
  1.965169   0.247619
  1.968376   0.269586
  1.971583   0.294215
  1.974790   0.321841
  1.977998   0.352817
  1.981205   0.387486
  1.984412   0.426161
  1.987619   0.469055
  1.990827   0.516223
  1.994034   0.567438
  1.997241   0.622089
  2.000448   0.679041
  2.003655   0.736573
  2.006863   0.792408
  2.010070   0.843898
  2.013277   0.888408
  2.016484   0.923753
  2.019692   0.948569
  2.022899   0.962401
  2.026106   0.965531
  2.029314   0.958611
  2.032521   0.942363
  2.035728   0.917444
  2.038935   0.884526
  2.042142   0.844453
  2.045350   0.798408
  2.048557   0.747931
  2.051764   0.694833
  2.054971   0.640961
  2.058179   0.587987
  2.061386   0.537247
  2.064593   0.489656
  2.067800   0.445747
  2.071008   0.405721
  2.074215   0.369557
  2.077422   0.337068
  2.080629   0.307992
  2.083837   0.282017
  2.087044   0.258829
  2.090251   0.238121
  2.093458   0.219609
  2.096666   0.203036
  2.099873   0.188170
  2.103080   0.174809
  2.106287   0.162771
  2.109494   0.151903
  2.112702   0.142065
  2.115909   0.133142
  2.119116   0.125026
  2.122324   0.117631
  2.125531   0.110875
  2.128738   0.104691
   2.13195    0.09902
   2.13515    0.09380
   2.13836    0.08900
   2.14157    0.08457
   2.14477    0.08047
   2.14798    0.07668
   2.15119    0.07316
   2.15440    0.06989
   2.15760    0.06685
   2.16081    0.06401
   2.16402    0.06137
   2.16722    0.05890
   2.17043    0.05658
   2.17364    0.05442
   2.17685    0.05238
   2.18005    0.05048
   2.18326    0.04868
   2.18647    0.04699
   2.18968    0.04540
   2.19288    0.04390
   2.19609    0.04248
   2.19930    0.04115
   2.20250    0.03988
   2.20571    0.03868
   2.20892    0.03755
   2.21213    0.03647
   2.21533    0.03545
   2.21854    0.03449
   2.22175    0.03357
   2.22496    0.03269
   2.22816    0.03186
   2.23137    0.03107
   2.23458    0.03032
   2.23778    0.02960
   2.24099    0.02892
   2.24420    0.02827
   2.24741    0.02765
   2.25061    0.02706
   2.25382    0.02649
   2.25703    0.02595
   2.26024    0.02543
   2.26344    0.02494
   2.26665    0.02447
   2.26986    0.02402
   2.27306    0.02358
   2.27627    0.02317
   2.27948    0.02278
   2.28269    0.02240
   2.28589    0.02204
   2.28910    0.02169
   2.29231    0.02136
   2.29551    0.02104
   2.29872    0.02074
   2.30193    0.02045
   2.30514    0.02017
   2.30834    0.01991
   2.31155    0.01965
   2.31476    0.01941
   2.31797    0.01917
   2.32117    0.01895
   2.32438    0.01874
   2.32759    0.01853
   2.33079    0.01834
   2.33400    0.01815
   2.33721    0.01798
   2.34042    0.01781
   2.34362    0.01765
   2.34683    0.01749
   2.35004    0.01735
   2.35325    0.01721
   2.35645    0.01708
   2.35966    0.01695
   2.36287    0.01683
   2.36607    0.01672
   2.36928    0.01662
   2.37249    0.01652
   2.37570    0.01642
   2.37890    0.01634
   2.38211    0.01625
   2.38532    0.01618
   2.38852    0.01611
   2.39173    0.01604
   2.39494    0.01598
   2.39815    0.01592
   2.40135    0.01587
   2.40456    0.01583
   2.40777    0.01579
   2.41098    0.01575
   2.41418    0.01572
   2.41739    0.01569
   2.42060    0.01567
   2.42380    0.01565
   2.42701    0.01564
   2.43022    0.01563
   2.43343    0.01562
   2.43663    0.01562
   2.43984    0.01563
   2.44305    0.01563
   2.44626    0.01565
   2.44946    0.01566
   2.45267    0.01568
   2.45588    0.01571
   2.45908    0.01574
   2.46229    0.01577
   2.46550    0.01581
   2.46871    0.01585
   2.47191    0.01590
   2.47512    0.01595
   2.47833    0.01600
   2.48153    0.01606
   2.48474    0.01613
   2.48795    0.01619
   2.49116    0.01627
   2.49436    0.01634
   2.49757    0.01642
   2.50078    0.01651
   2.50399    0.01660
   2.50719    0.01669
   2.51040    0.01679
   2.51361    0.01690
   2.51681    0.01701
   2.52002    0.01712
   2.52323    0.01724
   2.52644    0.01736
   2.52964    0.01749
   2.53285    0.01763
   2.53606    0.01777
   2.53927    0.01791
   2.54247    0.01806
   2.54568    0.01822
   2.54889    0.01838
   2.55209    0.01855
   2.55530    0.01872
   2.55851    0.01891
   2.56172    0.01909
   2.56492    0.01929
   2.56813    0.01949
   2.57134    0.01970
   2.57454    0.01991
   2.57775    0.02013
   2.58096    0.02036
   2.58417    0.02060
   2.58737    0.02085
   2.59058    0.02110
   2.59379    0.02136
   2.59700    0.02163
   2.60020    0.02192
   2.60341    0.02221
   2.60662    0.02251
   2.60982    0.02282
   2.61303    0.02314
   2.61624    0.02347
   2.61945    0.02381
   2.62265    0.02417
   2.62586    0.02454
   2.62907    0.02492
   2.63228    0.02531
   2.63548    0.02572
   2.63869    0.02614
   2.64190    0.02658
   2.64510    0.02703
   2.64831    0.02750
   2.65152    0.02798
   2.65473    0.02849
   2.65793    0.02901
   2.66114    0.02955
   2.66435    0.03011
   2.66756    0.03070
   2.67076    0.03131
   2.67397    0.03194
   2.67718    0.03259
   2.68038    0.03327
   2.68359    0.03398
   2.68680    0.03472
   2.69001    0.03549
   2.69321    0.03629
   2.69642    0.03712
   2.69963    0.03799
   2.70283    0.03890
   2.70604    0.03985
   2.70925    0.04084
   2.71246    0.04188
   2.71566    0.04296
   2.71887    0.04410
   2.72208    0.04529
   2.72529    0.04654
   2.72849    0.04786
   2.73170    0.04924
   2.73491    0.05069
   2.73811    0.05222
   2.74132    0.05383
   2.74453    0.05554
   2.74774    0.05733
   2.75094    0.05924
   2.75415    0.06125
   2.75736    0.06339
   2.76057    0.06566
   2.76377    0.06807
   2.76698    0.07064
   2.77019    0.07338
   2.77339    0.07631
   2.77660    0.07944
   2.77981    0.08281
   2.78302    0.08642
   2.78622    0.09030
   2.78943    0.09450
   2.79264    0.09903
  2.795845   0.103941
  2.799052   0.109274
  2.802259   0.115079
  2.805467   0.121414
  2.808674   0.128345
  2.811881   0.135947
  2.815088   0.144305
  2.818295   0.153518
  2.821503   0.163697
  2.824710   0.174966
  2.827917   0.187464
  2.831125   0.201343
  2.834332   0.216760
  2.837539   0.233877
  2.840746   0.252841
  2.843953   0.273764
  2.847161   0.296693
  2.850368   0.321557
  2.853575   0.348115
  2.856782   0.375882
  2.859990   0.404078
  2.863197   0.431604
  2.866404   0.457112
  2.869612   0.479166
  2.872819   0.496526
  2.876026   0.508449
  2.879233   0.514915
  2.882441   0.516672
  2.885648   0.515069
  2.888855   0.511770
  2.892062   0.508455
  2.895269   0.506609
  2.898477   0.507420
  2.901684   0.511761
  2.904891   0.520229
  2.908098   0.533194
  2.911306   0.550835
  2.914513   0.573161
  2.917720   0.600030
  2.920927   0.631137
  2.924135   0.666023
  2.927342   0.704047
  2.930549   0.744384
  2.933756   0.785977
  2.936964   0.827542
  2.940171   0.867606
  2.943378   0.904602
  2.946585   0.937040
  2.949793   0.963630
  2.953000   0.983385
  2.956207   0.995630
  2.959414   1.000000
  2.962621   0.996437
  2.965829   0.985213
  2.969036   0.966988
  2.972243   0.942846
  2.975451   0.914271
  2.978658   0.883032
  2.981865   0.850973
  2.985072   0.819794
  2.988279   0.790873
  2.991487   0.765156
  2.994694   0.743155
  2.997901   0.725001
  3.001109   0.710553
  3.004316   0.699501
  3.007523   0.691428
  3.010730   0.685819
  3.013937   0.682045
  3.017145   0.679369
  3.020352   0.677032
  3.023559   0.674407
  3.026767   0.671176
  3.029974   0.667452
  3.033181   0.663761
  3.036388   0.660902
  3.039595   0.659730
  3.042803   0.660954
  3.046010   0.665000
  3.049217   0.671947
  3.052424   0.681518
  3.055632   0.693107
  3.058839   0.705807
  3.062046   0.718475
  3.065253   0.729843
  3.068461   0.738714
  3.071668   0.744194
  3.074875   0.745890
  3.078082   0.743951
  3.081290   0.738920
  3.084497   0.731474
  3.087704   0.722170
  3.090911   0.711314
  3.094119   0.699004
  3.097326   0.685270
  3.100533   0.670222
  3.103740   0.654094
  3.106947   0.637169
  3.110155   0.619633
  3.113362   0.601471
  3.116569   0.582455
  3.119776   0.562272
  3.122984   0.540713
  3.126191   0.517832
  3.129398   0.494019
  3.132606   0.469929
  3.135813   0.446348
  3.139020   0.424023
  3.142227   0.403562
  3.145435   0.385360
  3.148642   0.369597
  3.151849   0.356244
  3.155056   0.345092
  3.158263   0.335785
  3.161471   0.327853
  3.164678   0.320779
  3.167885   0.314068
  3.171093   0.307330
  3.174300   0.300329
  3.177507   0.292994
  3.180714   0.285362
  3.183921   0.277514
  3.187129   0.269505
  3.190336   0.261343
  3.193543   0.253008
  3.196750   0.244500
  3.199958   0.235887
  3.203165   0.227316
  3.206372   0.219002
  3.209579   0.211179
  3.212787   0.204070
  3.215994   0.197847
  3.219201   0.192631
  3.222408   0.188493
  3.225616   0.185466
  3.228823   0.183551
  3.232030   0.182725
  3.235237   0.182934
  3.238445   0.184074
  3.241652   0.185980
  3.244859   0.188406
  3.248066   0.191019
  3.251273   0.193429
  3.254481   0.195225
  3.257688   0.196056
  3.260895   0.195701
  3.264102   0.194118
  3.267310   0.191432
  3.270517   0.187886
  3.273724   0.183760
  3.276932   0.179308
  3.280139   0.174727
  3.283346   0.170162
  3.286553   0.165735
  3.289761   0.161564
  3.292968   0.157777
  3.296175   0.154500
  3.299382   0.151842
  3.302589   0.149874
  3.305797   0.148620
  3.309004   0.148058
  3.312211   0.148127
  3.315418   0.148747
  3.318626   0.149842
  3.321833   0.151355
  3.325040   0.153247
  3.328247   0.155481
  3.331455   0.157985
  3.334662   0.160613
  3.337869   0.163118
  3.341076   0.165152
  3.344284   0.166308
  3.347491   0.166193
  3.350698   0.164525
  3.353905   0.161211
  3.357113   0.156375
  3.360320   0.150324
  3.363527   0.143474
  3.366734   0.136256
  3.369942   0.129052
  3.373149   0.122159
  3.376356   0.115780
  3.379563   0.110041
  3.382771   0.105005
  3.385978   0.100693
   3.38919    0.09710
   3.39239    0.09422
   3.39560    0.09202
   3.39881    0.09048
   3.40201    0.08960
   3.40522    0.08934
   3.40843    0.08971
   3.41164    0.09068
   3.41484    0.09225
   3.41805    0.09439
   3.42126    0.09703
  3.424465   0.100115
  3.427672   0.103525
  3.430879   0.107123
  3.434087   0.110746
  3.437294   0.114220
  3.440501   0.117379
  3.443708   0.120076
  3.446916   0.122189
  3.450123   0.123624
  3.453330   0.124328
  3.456537   0.124300
  3.459744   0.123607
  3.462951   0.122369
  3.466159   0.120735
  3.469366   0.118842
  3.472573   0.116792
  3.475780   0.114631
  3.478988   0.112375
  3.482195   0.110035
  3.485402   0.107651
  3.488610   0.105304
  3.491817   0.103117
  3.495024   0.101235
   3.49823    0.09980
   3.50144    0.09893
   3.50465    0.09871
   3.50785    0.09919
  3.511060   0.100337
  3.514268   0.102100
  3.517475   0.104336
  3.520682   0.106830
  3.523889   0.109289
  3.527097   0.111357
  3.530304   0.112656
  3.533511   0.112846
  3.536718   0.111702
  3.539926   0.109161
  3.543133   0.105340
  3.546340   0.100495
   3.54955    0.09496
   3.55275    0.08907
   3.55596    0.08312
   3.55917    0.07733
   3.56238    0.07187
   3.56558    0.06681
   3.56879    0.06219
   3.57200    0.05803
   3.57521    0.05430
   3.57841    0.05098
   3.58162    0.04805
   3.58483    0.04545
   3.58803    0.04317
   3.59124    0.04117
   3.59445    0.03942
   3.59766    0.03790
   3.60086    0.03658
   3.60407    0.03542
   3.60728    0.03441
   3.61049    0.03351
   3.61369    0.03269
   3.61690    0.03193
   3.62011    0.03119
   3.62331    0.03047
   3.62652    0.02976
   3.62973    0.02905
   3.63294    0.02835
   3.63614    0.02765
   3.63935    0.02694
   3.64256    0.02623
   3.64576    0.02550
   3.64897    0.02476
   3.65218    0.02399
   3.65539    0.02323
   3.65859    0.02247
   3.66180    0.02173
   3.66501    0.02102
   3.66822    0.02036
   3.67142    0.01975
   3.67463    0.01918
   3.67784    0.01867
   3.68104    0.01821
   3.68425    0.01781
   3.68746    0.01745
   3.69067    0.01714
   3.69387    0.01688
   3.69708    0.01666
   3.70029    0.01649
   3.70349    0.01637
   3.70670    0.01629
   3.70991    0.01627
   3.71312    0.01630
   3.71632    0.01638
   3.71953    0.01651
   3.72274    0.01669
   3.72595    0.01693
   3.72915    0.01720
   3.73236    0.01750
   3.73557    0.01781
   3.73877    0.01809
   3.74198    0.01832
   3.74519    0.01846
   3.74840    0.01847
   3.75160    0.01834
   3.75481    0.01805
   3.75802    0.01763
   3.76123    0.01711
   3.76443    0.01651
   3.76764    0.01588
   3.77085    0.01524
   3.77405    0.01462
   3.77726    0.01403
   3.78047    0.01347
   3.78368    0.01296
   3.78688    0.01250
   3.79009    0.01207
   3.79330    0.01168
   3.79651    0.01133
   3.79971    0.01101
   3.80292    0.01072
   3.80613    0.01046
   3.80933    0.01022
    3.8125     0.0100
    3.8157     0.0098
    3.8190     0.0096
    3.8222     0.0094
    3.8254     0.0093
    3.8286     0.0091
    3.8318     0.0090
    3.8350     0.0089
    3.8382     0.0088
    3.8414     0.0087
    3.8446     0.0086
    3.8478     0.0085
    3.8510     0.0084
    3.8542     0.0083
    3.8574     0.0082
    3.8606     0.0082
    3.8639     0.0081
    3.8671     0.0081
    3.8703     0.0080
    3.8735     0.0080
    3.8767     0.0079
    3.8799     0.0079
    3.8831     0.0079
    3.8863     0.0079
    3.8895     0.0079
    3.8927     0.0079
    3.8959     0.0079
    3.8991     0.0079
    3.9023     0.0079
    3.9056     0.0080
    3.9088     0.0080
    3.9120     0.0081
    3.9152     0.0081
    3.9184     0.0082
    3.9216     0.0083
    3.9248     0.0084
    3.9280     0.0085
    3.9312     0.0086
    3.9344     0.0088
    3.9376     0.0090
    3.9408     0.0092
    3.9440     0.0094
    3.9472     0.0096
    3.9505     0.0099
   3.95366    0.01026
   3.95687    0.01063
   3.96007    0.01106
   3.96328    0.01153
   3.96649    0.01208
   3.96970    0.01269
   3.97290    0.01339
   3.97611    0.01418
   3.97932    0.01508
   3.98253    0.01608
   3.98573    0.01721
   3.98894    0.01846
   3.99215    0.01984
   3.99535    0.02132
   3.99856    0.02288
   4.00177    0.02446
   4.00498    0.02600
   4.00818    0.02739
   4.01139    0.02853
   4.01460    0.02930
   4.01781    0.02962
   4.02101    0.02945
   4.02422    0.02882
   4.02743    0.02778
   4.03063    0.02645
   4.03384    0.02493
   4.03705    0.02333
   4.04026    0.02174
   4.04346    0.02020
   4.04667    0.01877
   4.04988    0.01746
   4.05308    0.01627
   4.05629    0.01521
   4.05950    0.01426
   4.06271    0.01343
   4.06591    0.01269
   4.06912    0.01204
   4.07233    0.01148
   4.07554    0.01098
   4.07874    0.01055
   4.08195    0.01018
    4.0852     0.0099
    4.0884     0.0096
    4.0916     0.0093
    4.0948     0.0092
    4.0980     0.0090
    4.1012     0.0089
    4.1044     0.0088
    4.1076     0.0087
    4.1108     0.0087
    4.1140     0.0087
    4.1172     0.0088
    4.1204     0.0089
    4.1236     0.0090
    4.1269     0.0092
    4.1301     0.0094
    4.1333     0.0097
    4.1365     0.0100
   4.13968    0.01035
   4.14289    0.01077
   4.14609    0.01125
   4.14930    0.01177
   4.15251    0.01234
   4.15572    0.01294
   4.15892    0.01355
   4.16213    0.01413
   4.16534    0.01466
   4.16855    0.01511
   4.17175    0.01546
   4.17496    0.01569
   4.17817    0.01583
   4.18137    0.01591
   4.18458    0.01595
   4.18779    0.01600
   4.19100    0.01610
   4.19420    0.01627
   4.19741    0.01652
   4.20062    0.01687
   4.20382    0.01729
   4.20703    0.01776
   4.21024    0.01825
   4.21345    0.01868
   4.21665    0.01900
   4.21986    0.01914
   4.22307    0.01906
   4.22628    0.01874
   4.22948    0.01818
   4.23269    0.01742
   4.23590    0.01652
   4.23910    0.01553
   4.24231    0.01452
   4.24552    0.01352
   4.24873    0.01257
   4.25193    0.01168
   4.25514    0.01087
   4.25835    0.01012
    4.2616     0.0095
    4.2648     0.0089
    4.2680     0.0083
    4.2712     0.0078
    4.2744     0.0074
    4.2776     0.0070
    4.2808     0.0067
    4.2840     0.0063
    4.2872     0.0061
    4.2904     0.0058
    4.2936     0.0056
    4.2968     0.0054
    4.3000     0.0052
    4.3032     0.0050
    4.3065     0.0048
    4.3097     0.0047
    4.3129     0.0045
    4.3161     0.0044
  4.319     0.4289E-2
  4.322     0.4179E-2
  4.326     0.4075E-2
  4.329     0.3979E-2
  4.332     0.3889E-2
  4.335     0.3804E-2
  4.339     0.3724E-2
  4.342     0.3649E-2
  4.345     0.3578E-2
  4.348     0.3511E-2
  4.351     0.3448E-2
  4.355     0.3388E-2
  4.358     0.3331E-2
  4.361     0.3276E-2
  4.364     0.3225E-2
  4.367     0.3175E-2
  4.371     0.3128E-2
  4.374     0.3083E-2
  4.377     0.3040E-2
  4.380     0.2998E-2
  4.383     0.2958E-2
  4.387     0.2920E-2
  4.390     0.2883E-2
  4.393     0.2848E-2
  4.396     0.2814E-2
  4.399     0.2781E-2
  4.403     0.2749E-2
  4.406     0.2718E-2
  4.409     0.2688E-2
  4.412     0.2659E-2
  4.416     0.2631E-2
  4.419     0.2604E-2
  4.422     0.2578E-2
  4.425     0.2553E-2
  4.428     0.2528E-2
  4.432     0.2504E-2
  4.435     0.2480E-2
  4.438     0.2457E-2
  4.441     0.2435E-2
  4.444     0.2413E-2
  4.448     0.2392E-2
  4.451     0.2371E-2
  4.454     0.2351E-2
  4.457     0.2331E-2
  4.460     0.2312E-2
  4.464     0.2293E-2
  4.467     0.2275E-2
  4.470     0.2257E-2
  4.473     0.2239E-2
  4.476     0.2222E-2
  4.480     0.2205E-2
  4.483     0.2188E-2
  4.486     0.2172E-2
  4.489     0.2156E-2
  4.492     0.2140E-2
  4.496     0.2125E-2
  4.499     0.2110E-2
  4.502     0.2095E-2
  4.505     0.2080E-2
  4.509     0.2066E-2
  4.512     0.2052E-2
  4.515     0.2038E-2
  4.518     0.2025E-2
  4.521     0.2011E-2
  4.525     0.1998E-2
  4.528     0.1985E-2
  4.531     0.1972E-2
  4.534     0.1960E-2
  4.537     0.1947E-2
  4.541     0.1935E-2
  4.544     0.1923E-2
  4.547     0.1911E-2
  4.550     0.1900E-2
  4.553     0.1888E-2
  4.557     0.1877E-2
  4.560     0.1865E-2
  4.563     0.1854E-2
  4.566     0.1844E-2
  4.569     0.1833E-2
  4.573     0.1822E-2
  4.576     0.1812E-2
  4.579     0.1801E-2
  4.582     0.1791E-2
  4.585     0.1781E-2
  4.589     0.1771E-2
  4.592     0.1761E-2
  4.595     0.1752E-2
  4.598     0.1742E-2
  4.602     0.1732E-2
  4.605     0.1723E-2
  4.608     0.1714E-2
  4.611     0.1705E-2
  4.614     0.1695E-2
  4.618     0.1687E-2
  4.621     0.1678E-2
  4.624     0.1669E-2
  4.627     0.1660E-2
  4.630     0.1652E-2
  4.634     0.1643E-2
  4.637     0.1635E-2
  4.640     0.1626E-2
  4.643     0.1618E-2
  4.646     0.1610E-2
  4.650     0.1602E-2
  4.653     0.1594E-2
  4.656     0.1586E-2
  4.659     0.1578E-2
  4.662     0.1571E-2
  4.666     0.1563E-2
  4.669     0.1555E-2
  4.672     0.1548E-2
  4.675     0.1540E-2
  4.678     0.1533E-2
  4.682     0.1526E-2
  4.685     0.1518E-2
  4.688     0.1511E-2
  4.691     0.1504E-2
  4.695     0.1497E-2
  4.698     0.1490E-2
  4.701     0.1483E-2
  4.704     0.1476E-2
  4.707     0.1469E-2
  4.711     0.1463E-2
  4.714     0.1456E-2
  4.717     0.1449E-2
  4.720     0.1443E-2
# 
# 05/03/2019 at 10:41 YPP @ login1.stampede2.tacc.utexas.edu [start]
# 05/03/2019 at 10:41                                        [end]
#  
# Timing   [Min/Max/Average]: 04s/04s/04s
#
# .-Input file : amp.in
# | excitons                     # [R] Excitons
# | amplitude                    # [R] Amplitude
# | BoseTemp=  0.02585     eV    # Bosonic Temperature
# | States= "1 - 10"             # Index of the BS state(s)
# | #DipWeight                   #  Weight the contribution to the exciton WFs with the dipoles
# | Degen_Step=0.1000E-4   eV    # Maximum energy separation of two degenerate states
