#                                                           
#  ____  ____     _       ____    ____  ______      ___     
# |_  _||_  _|   / \     |_   \  /   _||_   _ \   ."   `.   
#   \ \  / /    / _ \      |   \/   |    | |_) | /  .-.  \  
#    \ \/ /    / ___ \     | |\  /| |    |  __". | |   | |  
#    _|  |_  _/ /   \ \_  _| |_\/_| |_  _| |__) |\  `-"  /  
#   |______||____| |____||_____||_____||_______/  `.___."   
#                                                           
#                                                           
#                                                           
#              GPL Version 4.1.4 Revision 76                
#                        MPI Build                          
#                http://www.yambo-code.org                  
#
# BSK|Identifier              :5641
#    |Dimension               :11943
#    |Bands                   :121 - 172
#    |Exchange           [res]: yes
#    |Correlation        [res]: yes
#    |Kernel`s coupling       : no
#    |Exchange           [cpl]: no
#    |Correlation        [cpl]: no
#    |W interaction is bare   : no
#    |ALDA kernel in R-space  : no
#    |RL vectors    [exchange]:31669
#    |RL vectors [correlation]:387
#    |E/h energy range    [ev]:-1.000000 - -1.000000
#    |Coupling range     [o/o]: 100.0000 -  100.0000
#  W |Interaction is diagonal : no
#    |Matrix size             :2845
#    |Bands                   :1 - 570
#    |e/h energy range    [ev]:-1.000000 - -1.000000
#    |Poles              [o/o]: 100.0000
#    |RL vectors in the sum   :31669
#    |[r,Vnl] included        : yes
#    |Field direction         :-.8660E-5 0.5000E-5  0.000000
#    |Coulomb Cutoff          :box z
#    |xc-Kernel               :none
# RIM|RL components      [col]:0
#    |Random points      [col]:0
#
# Electron-Hole pairs that contributes to Excitonic State 3 more than 5%
#
#  E    [eV]  Amplitude
#  
    2.3425     0.0048
    2.3452     0.0048
    2.3478     0.0049
    2.3505     0.0049
    2.3532     0.0050
    2.3558     0.0050
    2.3585     0.0051
    2.3611     0.0051
    2.3638     0.0051
    2.3664     0.0052
    2.3691     0.0052
    2.3717     0.0053
    2.3744     0.0053
    2.3770     0.0054
    2.3797     0.0054
    2.3823     0.0055
    2.3850     0.0055
    2.3876     0.0055
    2.3903     0.0056
    2.3929     0.0056
    2.3956     0.0057
    2.3982     0.0057
    2.4009     0.0058
    2.4035     0.0058
    2.4062     0.0059
    2.4088     0.0060
    2.4115     0.0060
    2.4141     0.0061
    2.4168     0.0061
    2.4194     0.0062
    2.4221     0.0062
    2.4248     0.0063
    2.4274     0.0064
    2.4301     0.0064
    2.4327     0.0065
    2.4354     0.0065
    2.4380     0.0066
    2.4407     0.0067
    2.4433     0.0067
    2.4460     0.0068
    2.4486     0.0069
    2.4513     0.0069
    2.4539     0.0070
    2.4566     0.0071
    2.4592     0.0071
    2.4619     0.0072
    2.4645     0.0073
    2.4672     0.0074
    2.4698     0.0074
    2.4725     0.0075
    2.4751     0.0076
    2.4778     0.0077
    2.4804     0.0078
    2.4831     0.0078
    2.4857     0.0079
    2.4884     0.0080
    2.4911     0.0081
    2.4937     0.0082
    2.4964     0.0083
    2.4990     0.0084
    2.5017     0.0084
    2.5043     0.0085
    2.5070     0.0086
    2.5096     0.0087
    2.5123     0.0088
    2.5149     0.0089
    2.5176     0.0090
    2.5202     0.0091
    2.5229     0.0093
    2.5255     0.0094
    2.5282     0.0095
    2.5308     0.0096
    2.5335     0.0097
    2.5361     0.0098
    2.5388     0.0099
   2.54144    0.01006
   2.54409    0.01019
   2.54674    0.01032
   2.54939    0.01045
   2.55204    0.01058
   2.55470    0.01071
   2.55735    0.01085
   2.56000    0.01099
   2.56265    0.01113
   2.56530    0.01128
   2.56796    0.01143
   2.57061    0.01158
   2.57326    0.01174
   2.57591    0.01190
   2.57856    0.01206
   2.58122    0.01223
   2.58387    0.01240
   2.58652    0.01257
   2.58917    0.01275
   2.59182    0.01293
   2.59447    0.01312
   2.59713    0.01331
   2.59978    0.01351
   2.60243    0.01371
   2.60508    0.01391
   2.60773    0.01412
   2.61039    0.01434
   2.61304    0.01456
   2.61569    0.01478
   2.61834    0.01502
   2.62099    0.01525
   2.62365    0.01550
   2.62630    0.01575
   2.62895    0.01600
   2.63160    0.01627
   2.63425    0.01654
   2.63691    0.01682
   2.63956    0.01710
   2.64221    0.01740
   2.64486    0.01770
   2.64751    0.01801
   2.65016    0.01833
   2.65282    0.01866
   2.65547    0.01900
   2.65812    0.01935
   2.66077    0.01971
   2.66342    0.02008
   2.66608    0.02046
   2.66873    0.02085
   2.67138    0.02126
   2.67403    0.02168
   2.67668    0.02212
   2.67934    0.02257
   2.68199    0.02303
   2.68464    0.02351
   2.68729    0.02401
   2.68994    0.02453
   2.69260    0.02506
   2.69525    0.02562
   2.69790    0.02619
   2.70055    0.02679
   2.70320    0.02741
   2.70585    0.02805
   2.70851    0.02873
   2.71116    0.02942
   2.71381    0.03015
   2.71646    0.03091
   2.71911    0.03170
   2.72177    0.03253
   2.72442    0.03339
   2.72707    0.03430
   2.72972    0.03525
   2.73237    0.03624
   2.73503    0.03728
   2.73768    0.03838
   2.74033    0.03953
   2.74298    0.04075
   2.74563    0.04203
   2.74829    0.04338
   2.75094    0.04481
   2.75359    0.04632
   2.75624    0.04793
   2.75889    0.04964
   2.76154    0.05146
   2.76420    0.05339
   2.76685    0.05546
   2.76950    0.05768
   2.77215    0.06006
   2.77480    0.06262
   2.77746    0.06537
   2.78011    0.06835
   2.78276    0.07157
   2.78541    0.07507
   2.78806    0.07888
   2.79072    0.08304
   2.79337    0.08760
   2.79602    0.09259
   2.79867    0.09808
  2.801323   0.104141
  2.803975   0.110831
  2.806627   0.118230
  2.809279   0.126418
  2.811931   0.135473
  2.814583   0.145463
  2.817235   0.156440
  2.819887   0.168413
  2.822539   0.181327
  2.825190   0.195033
  2.827842   0.209250
  2.830494   0.223535
  2.833146   0.237286
  2.835798   0.249773
  2.838450   0.260239
  2.841102   0.268042
  2.843754   0.272818
  2.846406   0.274583
  2.849058   0.273739
  2.851709   0.270976
  2.854361   0.267121
  2.857013   0.262985
  2.859665   0.259268
  2.862317   0.256513
  2.864969   0.255111
  2.867621   0.255329
  2.870273   0.257348
  2.872925   0.261295
  2.875576   0.267274
  2.878228   0.275387
  2.880880   0.285747
  2.883532   0.298490
  2.886184   0.313782
  2.888836   0.331820
  2.891488   0.352832
  2.894140   0.377069
  2.896792   0.404800
  2.899444   0.436273
  2.902096   0.471695
  2.904748   0.511169
  2.907399   0.554607
  2.910051   0.601655
  2.912703   0.651574
  2.915355   0.703177
  2.918007   0.754796
  2.920659   0.804442
  2.923311   0.850047
  2.925963   0.889867
  2.928615   0.922821
  2.931267   0.948700
  2.933918   0.968051
  2.936570   0.981855
  2.939222   0.991173
  2.941874   0.996893
  2.944526   0.999677
  2.947178   1.000000
  2.949830   0.998177
  2.952482   0.994285
  2.955134   0.988022
  2.957786   0.978629
  2.960438   0.964977
  2.963089   0.945834
  2.965741   0.920256
  2.968393   0.887935
  2.971045   0.849387
  2.973697   0.805908
  2.976349   0.759328
  2.979001   0.711653
  2.981653   0.664736
  2.984305   0.620076
  2.986957   0.578724
  2.989608   0.541306
  2.992260   0.508095
  2.994912   0.479115
  2.997564   0.454204
  3.000216   0.433097
  3.002868   0.415477
  3.005520   0.401002
  3.008172   0.389341
  3.010824   0.380175
  3.013476   0.373207
  3.016127   0.368152
  3.018779   0.364743
  3.021431   0.362758
  3.024083   0.362043
  3.026735   0.362547
  3.029387   0.364317
  3.032039   0.367469
  3.034691   0.372119
  3.037343   0.378314
  3.039995   0.385961
  3.042646   0.394785
  3.045298   0.404334
  3.047951   0.414028
  3.050602   0.423256
  3.053254   0.431501
  3.055906   0.438444
  3.058558   0.444001
  3.061210   0.448292
  3.063862   0.451556
  3.066514   0.454088
  3.069165   0.456208
  3.071817   0.458265
  3.074469   0.460638
  3.077121   0.463684
  3.079773   0.467642
  3.082425   0.472519
  3.085077   0.477995
  3.087729   0.483402
  3.090381   0.487796
  3.093033   0.490126
  3.095685   0.489481
  3.098336   0.485319
  3.100988   0.477607
  3.103640   0.466801
  3.106292   0.453677
  3.108944   0.439107
  3.111596   0.423834
  3.114248   0.408350
  3.116900   0.392880
  3.119552   0.377455
  3.122204   0.362040
  3.124856   0.346650
  3.127507   0.331425
  3.130159   0.316625
  3.132811   0.302583
  3.135463   0.289634
  3.138115   0.278070
  3.140767   0.268097
  3.143419   0.259844
  3.146071   0.253364
  3.148723   0.248650
  3.151375   0.245643
  3.154027   0.244242
  3.156678   0.244298
  3.159330   0.245622
  3.161982   0.247991
  3.164634   0.251168
  3.167286   0.254945
  3.169938   0.259186
  3.172590   0.263878
  3.175242   0.269143
  3.177894   0.275230
  3.180545   0.282465
  3.183197   0.291193
  3.185849   0.301715
  3.188501   0.314238
  3.191153   0.328827
  3.193805   0.345351
  3.196457   0.363437
  3.199109   0.382414
  3.201761   0.401295
  3.204413   0.418806
  3.207064   0.433518
  3.209717   0.444062
  3.212368   0.449415
  3.215020   0.449142
  3.217672   0.443506
  3.220324   0.433408
  3.222976   0.420171
  3.225628   0.405273
  3.228280   0.390110
  3.230932   0.375844
  3.233583   0.363342
  3.236235   0.353177
  3.238888   0.345662
  3.241539   0.340898
  3.244191   0.338805
  3.246843   0.339151
  3.249495   0.341579
  3.252147   0.345637
  3.254799   0.350841
  3.257451   0.356746
  3.260103   0.363019
  3.262754   0.369478
  3.265406   0.376064
  3.268058   0.382739
  3.270710   0.389353
  3.273362   0.395533
  3.276014   0.400640
  3.278666   0.403837
  3.281318   0.404264
  3.283970   0.401279
  3.286622   0.394662
  3.289274   0.384710
  3.291925   0.372171
  3.294577   0.358052
  3.297229   0.343392
  3.299881   0.329072
  3.302533   0.315698
  3.305185   0.303558
  3.307837   0.292636
  3.310489   0.282662
  3.313141   0.273186
  3.315793   0.263691
  3.318444   0.253713
  3.321096   0.242955
  3.323748   0.231343
  3.326400   0.219029
  3.329052   0.206319
  3.331704   0.193580
  3.334356   0.181153
  3.337008   0.169308
  3.339660   0.158214
  3.342312   0.147951
  3.344964   0.138530
  3.347615   0.129914
  3.350267   0.122041
  3.352919   0.114843
  3.355571   0.108259
  3.358223   0.102237
   3.36087    0.09673
   3.36353    0.09171
   3.36618    0.08714
   3.36883    0.08299
   3.37148    0.07923
   3.37413    0.07583
   3.37679    0.07276
   3.37944    0.06999
   3.38209    0.06750
   3.38474    0.06527
   3.38739    0.06329
   3.39005    0.06153
   3.39270    0.05998
   3.39535    0.05863
   3.39800    0.05749
   3.40065    0.05653
   3.40331    0.05575
   3.40596    0.05517
   3.40861    0.05477
   3.41126    0.05456
   3.41391    0.05453
   3.41656    0.05468
   3.41922    0.05500
   3.42187    0.05548
   3.42452    0.05609
   3.42717    0.05677
   3.42982    0.05746
   3.43248    0.05809
   3.43513    0.05857
   3.43778    0.05881
   3.44043    0.05878
   3.44308    0.05844
   3.44574    0.05781
   3.44839    0.05696
   3.45104    0.05597
   3.45369    0.05493
   3.45634    0.05391
   3.45900    0.05298
   3.46165    0.05219
   3.46430    0.05157
   3.46695    0.05115
   3.46960    0.05093
   3.47225    0.05093
   3.47491    0.05115
   3.47756    0.05160
   3.48021    0.05228
   3.48286    0.05321
   3.48551    0.05440
   3.48817    0.05587
   3.49082    0.05763
   3.49347    0.05972
   3.49612    0.06217
   3.49877    0.06500
   3.50143    0.06827
   3.50408    0.07201
   3.50673    0.07627
   3.50938    0.08109
   3.51203    0.08650
   3.51469    0.09252
   3.51734    0.09914
  3.519989   0.106309
  3.522641   0.113915
  3.525293   0.121798
  3.527945   0.129734
  3.530597   0.137472
  3.533249   0.144771
  3.535900   0.151447
  3.538552   0.157410
  3.541204   0.162658
  3.543856   0.167229
  3.546508   0.171128
  3.549160   0.174263
  3.551812   0.176417
  3.554464   0.177280
  3.557116   0.176537
  3.559767   0.173979
  3.562420   0.169596
  3.565072   0.163602
  3.567724   0.156399
  3.570375   0.148480
  3.573027   0.140341
  3.575679   0.132407
  3.578331   0.125001
  3.580983   0.118341
  3.583635   0.112559
  3.586287   0.107723
  3.588938   0.103855
  3.591590   0.100951
   3.59424    0.09899
   3.59689    0.09795
   3.59955    0.09779
   3.60220    0.09846
   3.60485    0.09989
  3.607502   0.101962
  3.610154   0.104533
  3.612806   0.107394
  3.615458   0.110283
  3.618109   0.112898
  3.620762   0.114941
  3.623413   0.116160
  3.626065   0.116405
  3.628717   0.115647
  3.631369   0.113963
  3.634021   0.111498
  3.636673   0.108411
  3.639325   0.104833
  3.641977   0.100866
   3.64463    0.09659
   3.64728    0.09208
   3.64993    0.08744
   3.65258    0.08277
   3.65524    0.07822
   3.65789    0.07387
   3.66054    0.06981
   3.66319    0.06609
   3.66584    0.06272
   3.66850    0.05969
   3.67115    0.05698
   3.67380    0.05455
   3.67645    0.05236
   3.67910    0.05039
   3.68176    0.04861
   3.68441    0.04704
   3.68706    0.04568
   3.68971    0.04453
   3.69236    0.04360
   3.69501    0.04289
   3.69767    0.04240
   3.70032    0.04212
   3.70297    0.04205
   3.70562    0.04215
   3.70827    0.04241
   3.71093    0.04281
   3.71358    0.04333
   3.71623    0.04396
   3.71888    0.04470
   3.72153    0.04555
   3.72419    0.04652
   3.72684    0.04758
   3.72949    0.04867
   3.73214    0.04972
   3.73479    0.05061
   3.73745    0.05122
   3.74010    0.05142
   3.74275    0.05112
   3.74540    0.05028
   3.74805    0.04896
   3.75070    0.04724
   3.75336    0.04524
   3.75601    0.04311
   3.75866    0.04095
   3.76131    0.03885
   3.76396    0.03689
   3.76662    0.03508
   3.76927    0.03346
   3.77192    0.03203
   3.77457    0.03077
   3.77722    0.02969
   3.77988    0.02877
   3.78253    0.02800
   3.78518    0.02737
   3.78783    0.02686
   3.79048    0.02648
   3.79314    0.02621
   3.79579    0.02605
   3.79844    0.02599
   3.80109    0.02604
   3.80374    0.02619
   3.80639    0.02645
   3.80905    0.02681
   3.81170    0.02728
   3.81435    0.02788
   3.81700    0.02859
   3.81965    0.02944
   3.82231    0.03044
   3.82496    0.03161
   3.82761    0.03295
   3.83026    0.03450
   3.83291    0.03626
   3.83557    0.03829
   3.83822    0.04059
   3.84087    0.04322
   3.84352    0.04620
   3.84617    0.04958
   3.84883    0.05340
   3.85148    0.05770
   3.85413    0.06249
   3.85678    0.06780
   3.85943    0.07359
   3.86208    0.07978
   3.86474    0.08624
   3.86739    0.09274
   3.87004    0.09896
  3.872692   0.104530
  3.875344   0.109032
  3.877996   0.112122
  3.880648   0.113583
  3.883300   0.113391
  3.885952   0.111718
  3.888604   0.108877
  3.891256   0.105241
  3.893908   0.101158
   3.89656    0.09690
   3.89921    0.09264
   3.90186    0.08849
   3.90451    0.08448
   3.90717    0.08063
   3.90982    0.07696
   3.91247    0.07346
   3.91512    0.07015
   3.91777    0.06699
   3.92043    0.06397
   3.92308    0.06104
   3.92573    0.05817
   3.92838    0.05532
   3.93103    0.05247
   3.93369    0.04963
   3.93634    0.04681
   3.93899    0.04403
   3.94164    0.04134
   3.94429    0.03877
   3.94695    0.03635
   3.94960    0.03410
   3.95225    0.03204
   3.95490    0.03016
   3.95755    0.02846
   3.96020    0.02693
   3.96286    0.02556
   3.96551    0.02435
   3.96816    0.02327
   3.97081    0.02231
   3.97346    0.02147
   3.97612    0.02073
   3.97877    0.02008
   3.98142    0.01953
   3.98407    0.01906
   3.98672    0.01867
   3.98938    0.01835
   3.99203    0.01811
   3.99468    0.01794
   3.99733    0.01784
   3.99998    0.01782
   4.00264    0.01787
   4.00529    0.01801
   4.00794    0.01823
   4.01059    0.01854
   4.01324    0.01895
   4.01589    0.01946
   4.01855    0.02010
   4.02120    0.02086
   4.02385    0.02176
   4.02650    0.02281
   4.02915    0.02400
   4.03181    0.02535
   4.03446    0.02683
   4.03711    0.02843
   4.03976    0.03008
   4.04241    0.03172
   4.04507    0.03325
   4.04772    0.03454
   4.05037    0.03548
   4.05302    0.03597
   4.05567    0.03594
   4.05833    0.03541
   4.06098    0.03443
   4.06363    0.03312
   4.06628    0.03158
   4.06893    0.02992
   4.07158    0.02824
   4.07424    0.02660
   4.07689    0.02502
   4.07954    0.02354
   4.08219    0.02214
   4.08484    0.02083
   4.08750    0.01961
   4.09015    0.01848
   4.09280    0.01744
   4.09545    0.01649
   4.09810    0.01563
   4.10076    0.01485
   4.10341    0.01415
   4.10606    0.01352
   4.10871    0.01296
   4.11136    0.01247
   4.11402    0.01203
   4.11667    0.01165
   4.11932    0.01131
   4.12197    0.01101
   4.12462    0.01075
   4.12727    0.01053
   4.12993    0.01035
   4.13258    0.01019
   4.13523    0.01007
    4.1379     0.0100
    4.1405     0.0099
    4.1432     0.0099
    4.1458     0.0098
    4.1485     0.0099
    4.1511     0.0099
    4.1538     0.0100
   4.15645    0.01008
   4.15910    0.01021
   4.16175    0.01038
   4.16440    0.01058
   4.16705    0.01083
   4.16971    0.01112
   4.17236    0.01146
   4.17501    0.01186
   4.17766    0.01232
   4.18031    0.01284
   4.18296    0.01345
   4.18562    0.01414
   4.18827    0.01493
   4.19092    0.01583
   4.19357    0.01685
   4.19622    0.01799
   4.19888    0.01926
   4.20153    0.02066
   4.20418    0.02218
   4.20683    0.02379
   4.20948    0.02544
   4.21214    0.02705
   4.21479    0.02855
   4.21744    0.02981
   4.22009    0.03074
   4.22274    0.03125
   4.22540    0.03130
   4.22805    0.03090
   4.23070    0.03014
   4.23335    0.02910
   4.23600    0.02791
   4.23866    0.02667
   4.24131    0.02548
   4.24396    0.02440
   4.24661    0.02347
   4.24926    0.02271
   4.25191    0.02216
   4.25457    0.02180
   4.25722    0.02165
   4.25987    0.02169
   4.26252    0.02192
   4.26517    0.02231
   4.26783    0.02284
   4.27048    0.02346
   4.27313    0.02412
   4.27578    0.02474
   4.27843    0.02524
   4.28109    0.02552
   4.28374    0.02552
   4.28639    0.02519
   4.28904    0.02455
   4.29169    0.02362
   4.29434    0.02248
   4.29700    0.02120
   4.29965    0.01987
   4.30230    0.01854
   4.30495    0.01726
   4.30760    0.01606
   4.31026    0.01496
   4.31291    0.01396
   4.31556    0.01306
   4.31821    0.01225
   4.32086    0.01154
   4.32352    0.01090
   4.32617    0.01033
    4.3288     0.0098
    4.3315     0.0094
    4.3341     0.0090
    4.3368     0.0086
    4.3394     0.0083
    4.3421     0.0081
    4.3447     0.0078
    4.3474     0.0076
    4.3500     0.0075
    4.3527     0.0073
    4.3553     0.0072
    4.3580     0.0071
    4.3606     0.0070
    4.3633     0.0069
    4.3659     0.0069
    4.3686     0.0069
    4.3713     0.0069
    4.3739     0.0069
    4.3766     0.0070
    4.3792     0.0070
    4.3819     0.0071
    4.3845     0.0073
    4.3872     0.0074
    4.3898     0.0076
    4.3925     0.0078
    4.3951     0.0081
    4.3978     0.0084
    4.4004     0.0088
    4.4031     0.0092
    4.4057     0.0097
   4.40838    0.01019
   4.41103    0.01080
   4.41368    0.01148
   4.41633    0.01222
   4.41898    0.01301
   4.42164    0.01384
   4.42429    0.01468
   4.42694    0.01549
   4.42959    0.01621
   4.43224    0.01681
   4.43490    0.01723
   4.43755    0.01746
   4.44020    0.01749
   4.44285    0.01736
   4.44550    0.01711
   4.44816    0.01680
   4.45081    0.01647
   4.45346    0.01617
   4.45611    0.01594
   4.45876    0.01578
   4.46141    0.01570
   4.46407    0.01569
   4.46672    0.01574
   4.46937    0.01584
   4.47202    0.01597
   4.47467    0.01611
   4.47733    0.01627
   4.47998    0.01642
   4.48263    0.01655
   4.48528    0.01665
   4.48793    0.01667
   4.49059    0.01658
   4.49324    0.01635
   4.49589    0.01596
   4.49854    0.01541
   4.50119    0.01472
   4.50385    0.01393
   4.50650    0.01308
   4.50915    0.01222
   4.51180    0.01137
   4.51445    0.01056
    4.5171     0.0098
    4.5198     0.0091
    4.5224     0.0085
    4.5251     0.0079
    4.5277     0.0074
    4.5304     0.0069
    4.5330     0.0065
    4.5357     0.0061
    4.5383     0.0058
    4.5410     0.0055
    4.5436     0.0052
    4.5463     0.0050
    4.5489     0.0047
  4.552     0.4539E-2
  4.554     0.4354E-2
  4.557     0.4184E-2
  4.560     0.4029E-2
  4.562     0.3886E-2
  4.565     0.3754E-2
  4.567     0.3632E-2
  4.570     0.3520E-2
  4.573     0.3415E-2
  4.575     0.3318E-2
  4.578     0.3227E-2
  4.581     0.3142E-2
  4.583     0.3063E-2
  4.586     0.2989E-2
  4.589     0.2919E-2
  4.591     0.2853E-2
  4.594     0.2791E-2
  4.597     0.2732E-2
  4.599     0.2677E-2
  4.602     0.2624E-2
  4.605     0.2574E-2
  4.607     0.2527E-2
  4.610     0.2482E-2
  4.613     0.2439E-2
  4.615     0.2398E-2
  4.618     0.2359E-2
  4.621     0.2321E-2
  4.623     0.2286E-2
  4.626     0.2251E-2
  4.628     0.2218E-2
  4.631     0.2187E-2
  4.634     0.2156E-2
  4.636     0.2127E-2
  4.639     0.2099E-2
  4.642     0.2072E-2
  4.644     0.2045E-2
  4.647     0.2020E-2
  4.650     0.1996E-2
  4.652     0.1972E-2
  4.655     0.1949E-2
  4.658     0.1927E-2
  4.660     0.1906E-2
  4.663     0.1885E-2
  4.666     0.1865E-2
  4.668     0.1845E-2
  4.671     0.1826E-2
  4.674     0.1808E-2
  4.676     0.1790E-2
  4.679     0.1772E-2
  4.682     0.1755E-2
  4.684     0.1739E-2
  4.687     0.1722E-2
  4.689     0.1707E-2
  4.692     0.1691E-2
  4.695     0.1676E-2
  4.697     0.1662E-2
  4.700     0.1647E-2
  4.703     0.1633E-2
  4.705     0.1620E-2
  4.708     0.1606E-2
  4.711     0.1593E-2
  4.713     0.1580E-2
  4.716     0.1568E-2
  4.719     0.1556E-2
  4.721     0.1544E-2
  4.724     0.1532E-2
  4.727     0.1520E-2
  4.729     0.1509E-2
  4.732     0.1498E-2
  4.735     0.1487E-2
  4.737     0.1476E-2
  4.740     0.1466E-2
  4.743     0.1456E-2
  4.745     0.1445E-2
  4.748     0.1435E-2
  4.750     0.1426E-2
  4.753     0.1416E-2
  4.756     0.1407E-2
  4.758     0.1397E-2
  4.761     0.1388E-2
  4.764     0.1379E-2
  4.766     0.1370E-2
  4.769     0.1362E-2
  4.772     0.1353E-2
  4.774     0.1345E-2
  4.777     0.1336E-2
  4.780     0.1328E-2
  4.782     0.1320E-2
  4.785     0.1312E-2
  4.788     0.1304E-2
  4.790     0.1296E-2
  4.793     0.1289E-2
  4.796     0.1281E-2
  4.798     0.1274E-2
  4.801     0.1267E-2
  4.804     0.1259E-2
  4.806     0.1252E-2
  4.809     0.1245E-2
  4.811     0.1238E-2
  4.814     0.1231E-2
  4.817     0.1225E-2
  4.819     0.1218E-2
  4.822     0.1211E-2
  4.825     0.1205E-2
  4.827     0.1198E-2
  4.830     0.1192E-2
  4.833     0.1186E-2
  4.835     0.1180E-2
  4.838     0.1173E-2
  4.841     0.1167E-2
  4.843     0.1161E-2
  4.846     0.1155E-2
  4.849     0.1150E-2
  4.851     0.1144E-2
  4.854     0.1138E-2
  4.857     0.1132E-2
  4.859     0.1127E-2
  4.862     0.1121E-2
  4.865     0.1116E-2
  4.867     0.1110E-2
  4.870     0.1105E-2
  4.872     0.1100E-2
  4.875     0.1094E-2
  4.878     0.1089E-2
  4.880     0.1084E-2
  4.883     0.1079E-2
  4.886     0.1074E-2
  4.888     0.1069E-2
  4.891     0.1064E-2
  4.894     0.1059E-2
  4.896     0.1054E-2
  4.899     0.1049E-2
  4.902     0.1044E-2
  4.904     0.1040E-2
  4.907     0.1035E-2
  4.910     0.1030E-2
  4.912     0.1026E-2
  4.915     0.1021E-2
  4.918     0.1017E-2
  4.920     0.1012E-2
  4.923     0.1008E-2
  4.925     0.1003E-2
  4.928     0.9991E-3
  4.931     0.9948E-3
  4.933     0.9905E-3
  4.936     0.9863E-3
  4.939     0.9821E-3
  4.941     0.9779E-3
  4.944     0.9738E-3
  4.947     0.9697E-3
  4.949     0.9656E-3
  4.952     0.9616E-3
  4.955     0.9576E-3
  4.957     0.9536E-3
  4.960     0.9497E-3
  4.963     0.9458E-3
  4.965     0.9419E-3
  4.968     0.9381E-3
  4.971     0.9343E-3
  4.973     0.9305E-3
  4.976     0.9267E-3
  4.979     0.9230E-3
  4.981     0.9193E-3
  4.984     0.9157E-3
  4.986     0.9120E-3
  4.989     0.9084E-3
  4.992     0.9049E-3
# 
# 05/03/2019 at 12:55 YPP @ login2.stampede2.tacc.utexas.edu [start]
# 05/03/2019 at 12:55                                        [end]
#  
# Timing   [Min/Max/Average]: 03s/03s/03s
#
# .-Input file : amp.in
# | excitons                     # [R] Excitons
# | amplitude                    # [R] Amplitude
# | BoseTemp=  0.02585     eV    # Bosonic Temperature
# | States= "1 - 10"             # Index of the BS state(s)
# | #DipWeight                   #  Weight the contribution to the exciton WFs with the dipoles
# | Degen_Step=0.1000E-4   eV    # Maximum energy separation of two degenerate states
