#                                                           
#  __  __   ________   ___ __ __    _______   ______        
# /_/\/_/\ /_______/\ /__//_//_/\ /_______/\ /_____/\       
# \ \ \ \ \\::: _  \ \\::\| \| \ \\::: _  \ \\:::_ \ \      
#  \:\_\ \ \\::(_)  \ \\:.      \ \\::(_)  \/_\:\ \ \ \     
#   \::::_\/ \:: __  \ \\:.\-/\  \ \\::  _  \ \\:\ \ \ \    
#     \::\ \  \:.\ \  \ \\. \  \  \ \\::(_)  \ \\:\_\ \ \   
#      \__\/   \__\/\__\/ \__\/ \__\/ \_______\/ \_____\/   
#                                                           
#                                                           
#              GPL Version 4.1.4 Revision 76                
#                        MPI Build                          
#                http://www.yambo-code.org                  
#
# BSK|Identifier              :2467
#    |Dimension               :14580
#    |Bands                   :100 - 180
#    |Exchange           [res]: yes
#    |Correlation        [res]: yes
#    |Kernel`s coupling       : no
#    |Exchange           [cpl]: no
#    |Correlation        [cpl]: no
#    |W interaction is bare   : no
#    |ALDA kernel in R-space  : no
#    |RL vectors    [exchange]:27983
#    |RL vectors [correlation]:4011
#    |E/h energy range    [ev]:-1.000000 - -1.000000
#    |Coupling range     [o/o]: 100.0000 -  100.0000
#  W |Interaction is diagonal : no
#    |Matrix size             :8049
#    |Bands                   :1 - 1800
#    |e/h energy range    [ev]:-1.000000 - -1.000000
#    |Poles              [o/o]: 100.0000
#    |RL vectors in the sum   :27983
#    |[r,Vnl] included        : yes
#    |Field direction         :0.1000E-4  0.000000  0.000000
#    |Coulomb Cutoff          :box z
#    |xc-Kernel               :none
# RIM|RL components      [col]:0
#    |Random points      [col]:0
#
# Electron-Hole pairs that contributes to Excitonic State 8 more than 5%
#
#  E    [eV]  Amplitude
#  
    3.5475     0.0040
    3.5507     0.0041
    3.5539     0.0041
    3.5571     0.0041
    3.5603     0.0041
    3.5635     0.0042
    3.5667     0.0042
    3.5699     0.0042
    3.5731     0.0043
    3.5763     0.0043
    3.5795     0.0043
    3.5827     0.0043
    3.5859     0.0044
    3.5890     0.0044
    3.5922     0.0044
    3.5954     0.0045
    3.5986     0.0045
    3.6018     0.0045
    3.6050     0.0046
    3.6082     0.0046
    3.6114     0.0046
    3.6146     0.0047
    3.6178     0.0047
    3.6210     0.0047
    3.6242     0.0048
    3.6274     0.0048
    3.6306     0.0048
    3.6337     0.0049
    3.6369     0.0049
    3.6401     0.0049
    3.6433     0.0050
    3.6465     0.0050
    3.6497     0.0050
    3.6529     0.0051
    3.6561     0.0051
    3.6593     0.0052
    3.6625     0.0052
    3.6657     0.0052
    3.6689     0.0053
    3.6721     0.0053
    3.6752     0.0054
    3.6784     0.0054
    3.6816     0.0054
    3.6848     0.0055
    3.6880     0.0055
    3.6912     0.0056
    3.6944     0.0056
    3.6976     0.0057
    3.7008     0.0057
    3.7040     0.0058
    3.7072     0.0058
    3.7104     0.0059
    3.7136     0.0059
    3.7167     0.0060
    3.7199     0.0060
    3.7231     0.0061
    3.7263     0.0061
    3.7295     0.0062
    3.7327     0.0062
    3.7359     0.0063
    3.7391     0.0063
    3.7423     0.0064
    3.7455     0.0064
    3.7487     0.0065
    3.7519     0.0065
    3.7551     0.0066
    3.7582     0.0067
    3.7614     0.0067
    3.7646     0.0068
    3.7678     0.0068
    3.7710     0.0069
    3.7742     0.0070
    3.7774     0.0070
    3.7806     0.0071
    3.7838     0.0072
    3.7870     0.0072
    3.7902     0.0073
    3.7934     0.0074
    3.7966     0.0074
    3.7997     0.0075
    3.8029     0.0076
    3.8061     0.0076
    3.8093     0.0077
    3.8125     0.0078
    3.8157     0.0079
    3.8189     0.0079
    3.8221     0.0080
    3.8253     0.0081
    3.8285     0.0082
    3.8317     0.0083
    3.8349     0.0084
    3.8381     0.0085
    3.8412     0.0085
    3.8444     0.0086
    3.8476     0.0087
    3.8508     0.0088
    3.8540     0.0089
    3.8572     0.0090
    3.8604     0.0091
    3.8636     0.0092
    3.8668     0.0093
    3.8700     0.0094
    3.8732     0.0095
    3.8764     0.0096
    3.8796     0.0098
    3.8828     0.0099
    3.8859     0.0100
   3.88914    0.01011
   3.89233    0.01023
   3.89552    0.01036
   3.89871    0.01049
   3.90191    0.01062
   3.90510    0.01076
   3.90829    0.01090
   3.91148    0.01104
   3.91468    0.01119
   3.91787    0.01134
   3.92106    0.01150
   3.92425    0.01166
   3.92745    0.01182
   3.93064    0.01199
   3.93383    0.01217
   3.93702    0.01235
   3.94021    0.01254
   3.94341    0.01274
   3.94660    0.01294
   3.94979    0.01315
   3.95298    0.01337
   3.95618    0.01360
   3.95937    0.01384
   3.96256    0.01409
   3.96575    0.01436
   3.96895    0.01464
   3.97214    0.01493
   3.97533    0.01524
   3.97852    0.01557
   3.98172    0.01592
   3.98491    0.01629
   3.98810    0.01669
   3.99129    0.01712
   3.99449    0.01758
   3.99768    0.01808
   4.00087    0.01862
   4.00406    0.01920
   4.00726    0.01984
   4.01045    0.02054
   4.01364    0.02129
   4.01683    0.02211
   4.02003    0.02300
   4.02322    0.02394
   4.02641    0.02494
   4.02960    0.02596
   4.03279    0.02699
   4.03599    0.02798
   4.03918    0.02887
   4.04237    0.02962
   4.04556    0.03018
   4.04876    0.03052
   4.05195    0.03064
   4.05514    0.03056
   4.05833    0.03032
   4.06153    0.02998
   4.06472    0.02959
   4.06791    0.02920
   4.07110    0.02884
   4.07430    0.02854
   4.07749    0.02830
   4.08068    0.02813
   4.08387    0.02804
   4.08707    0.02803
   4.09026    0.02808
   4.09345    0.02821
   4.09664    0.02840
   4.09984    0.02865
   4.10303    0.02896
   4.10622    0.02932
   4.10941    0.02974
   4.11261    0.03022
   4.11580    0.03075
   4.11899    0.03134
   4.12218    0.03199
   4.12537    0.03270
   4.12857    0.03347
   4.13176    0.03432
   4.13495    0.03523
   4.13814    0.03623
   4.14134    0.03732
   4.14453    0.03850
   4.14772    0.03979
   4.15091    0.04120
   4.15411    0.04273
   4.15730    0.04440
   4.16049    0.04623
   4.16368    0.04820
   4.16688    0.05034
   4.17007    0.05263
   4.17326    0.05506
   4.17645    0.05760
   4.17965    0.06019
   4.18284    0.06278
   4.18603    0.06527
   4.18922    0.06759
   4.19242    0.06964
   4.19561    0.07137
   4.19880    0.07272
   4.20199    0.07367
   4.20519    0.07425
   4.20838    0.07451
   4.21157    0.07453
   4.21476    0.07440
   4.21796    0.07421
   4.22115    0.07406
   4.22434    0.07402
   4.22753    0.07414
   4.23072    0.07445
   4.23392    0.07499
   4.23711    0.07576
   4.24030    0.07677
   4.24349    0.07803
   4.24669    0.07954
   4.24988    0.08131
   4.25307    0.08332
   4.25626    0.08560
   4.25946    0.08814
   4.26265    0.09096
   4.26584    0.09407
   4.26903    0.09749
  4.272226   0.101236
  4.275419   0.105339
  4.278611   0.109827
  4.281804   0.114735
  4.284996   0.120106
  4.288188   0.125986
  4.291380   0.132430
  4.294573   0.139503
  4.297766   0.147272
  4.300958   0.155819
  4.304150   0.165228
  4.307343   0.175596
  4.310535   0.187018
  4.313728   0.199591
  4.316920   0.213397
  4.320112   0.228497
  4.323305   0.244910
  4.326497   0.262586
  4.329690   0.281389
  4.332882   0.301077
  4.336075   0.321297
  4.339267   0.341634
  4.342459   0.361680
  4.345652   0.381141
  4.348844   0.399949
  4.352036   0.418328
  4.355229   0.436797
  4.358421   0.456089
  4.361614   0.477059
  4.364806   0.500553
  4.367999   0.527314
  4.371191   0.557908
  4.374383   0.592660
  4.377576   0.631604
  4.380768   0.674403
  4.383961   0.720338
  4.387153   0.768253
  4.390346   0.816579
  4.393538   0.863383
  4.396730   0.906487
  4.399923   0.943606
  4.403115   0.972609
  4.406308   0.991757
  4.409500   1.000000
  4.412693   0.997208
  4.415884   0.984279
  4.419077   0.963081
  4.422270   0.936210
  4.425462   0.906588
  4.428655   0.877077
  4.431847   0.850159
  4.435039   0.827764
  4.438232   0.811232
  4.441424   0.801361
  4.444617   0.798450
  4.447809   0.802367
  4.451001   0.812558
  4.454194   0.828054
  4.457386   0.847476
  4.460579   0.869082
  4.463771   0.890920
  4.466964   0.911054
  4.470156   0.927864
  4.473348   0.940306
  4.476541   0.948048
  4.479733   0.951386
  4.482926   0.950964
  4.486118   0.947417
  4.489310   0.941056
  4.492503   0.931733
  4.495695   0.918965
  4.498888   0.902222
  4.502080   0.881295
  4.505272   0.856488
  4.508465   0.828617
  4.511657   0.798760
  4.514850   0.767936
  4.518043   0.736842
  4.521235   0.705778
  4.524427   0.674703
  4.527619   0.643461
  4.530812   0.611989
  4.534004   0.580461
  4.537197   0.549288
  4.540390   0.519053
  4.543581   0.490346
  4.546774   0.463687
  4.549966   0.439455
  4.553159   0.417892
  4.556351   0.399114
  4.559544   0.383147
  4.562736   0.369952
  4.565928   0.359452
  4.569121   0.351531
  4.572313   0.346055
  4.575506   0.342863
  4.578698   0.341770
  4.581891   0.342546
  4.585083   0.344898
  4.588275   0.348456
  4.591468   0.352759
  4.594660   0.357289
  4.597853   0.361528
  4.601045   0.365053
  4.604238   0.367629
  4.607430   0.369255
  4.610622   0.370136
  4.613815   0.370584
  4.617007   0.370892
  4.620199   0.371234
  4.623392   0.371612
  4.626585   0.371883
  4.629777   0.371844
  4.632969   0.371347
  4.636161   0.370395
  4.639354   0.369186
  4.642547   0.368089
  4.645739   0.367568
  4.648932   0.368103
  4.652124   0.370126
  4.655316   0.373997
  4.658508   0.380013
  4.661701   0.388433
  4.664894   0.399501
  4.668086   0.413470
  4.671278   0.430604
  4.674470   0.451174
  4.677663   0.475438
  4.680856   0.503617
  4.684048   0.535826
  4.687241   0.572010
  4.690433   0.611815
  4.693625   0.654452
  4.696817   0.698560
  4.700010   0.742131
  4.703203   0.782560
  4.706395   0.816858
  4.709587   0.842124
  4.712780   0.856070
  4.715972   0.857493
  4.719164   0.846511
  4.722357   0.824438
  4.725550   0.793456
  4.728742   0.756168
  4.731934   0.715227
  4.735126   0.673056
  4.738319   0.631678
  4.741512   0.592629
  4.744704   0.556974
  4.747896   0.525320
  4.751089   0.497924
  4.754281   0.474759
  4.757473   0.455593
  4.760666   0.440058
  4.763858   0.427702
  4.767051   0.418043
  4.770243   0.410614
  4.773436   0.404962
  4.776628   0.400635
  4.779820   0.397131
  4.783013   0.393845
  4.786205   0.390066
  4.789398   0.385032
  4.792590   0.378055
  4.795783   0.368672
  4.798975   0.356764
  4.802167   0.342585
  4.805360   0.326698
  4.808552   0.309830
  4.811745   0.292724
  4.814937   0.276027
  4.818130   0.260230
  4.821321   0.245657
  4.824514   0.232488
  4.827707   0.220791
  4.830899   0.210563
  4.834092   0.201757
  4.837284   0.194308
  4.840476   0.188154
  4.843668   0.183244
  4.846861   0.179543
  4.850054   0.177031
  4.853246   0.175701
  4.856438   0.175548
  4.859631   0.176567
  4.862823   0.178742
  4.866016   0.182027
  4.869208   0.186330
  4.872401   0.191488
  4.875593   0.197240
  4.878785   0.203208
  4.881978   0.208894
  4.885170   0.213716
  4.888363   0.217078
  4.891555   0.218492
  4.894747   0.217687
  4.897940   0.214681
  4.901132   0.209783
  4.904325   0.203507
  4.907517   0.196456
  4.910710   0.189219
  4.913902   0.182288
  4.917094   0.176039
  4.920287   0.170734
  4.923479   0.166538
  4.926672   0.163552
  4.929864   0.161827
  4.933056   0.161385
  4.936249   0.162226
  4.939441   0.164325
  4.942634   0.167627
  4.945827   0.172033
  4.949018   0.177370
  4.952211   0.183382
  4.955403   0.189703
  4.958596   0.195864
  4.961788   0.201332
  4.964981   0.205580
  4.968173   0.208197
  4.971365   0.208982
  4.974558   0.207994
  4.977750   0.205529
  4.980943   0.202025
  4.984135   0.197942
  4.987328   0.193659
  4.990520   0.189407
  4.993712   0.185258
  4.996905   0.181152
  5.000097   0.176964
  5.003290   0.172574
  5.006482   0.167936
  5.009675   0.163110
  5.012867   0.158252
  5.016059   0.153584
  5.019252   0.149343
  5.022444   0.145744
  5.025636   0.142959
  5.028829   0.141109
  5.032022   0.140265
  5.035214   0.140450
  5.038406   0.141640
  5.041598   0.143759
  5.044791   0.146665
  5.047983   0.150140
  5.051176   0.153880
  5.054368   0.157496
  5.057561   0.160544
  5.060753   0.162570
  5.063945   0.163199
  5.067138   0.162209
  5.070331   0.159587
  5.073523   0.155539
  5.076715   0.150428
  5.079907   0.144694
  5.083100   0.138767
  5.086292   0.133007
  5.089485   0.127675
  5.092678   0.122932
  5.095870   0.118845
  5.099062   0.115403
  5.102254   0.112533
  5.105447   0.110123
  5.108639   0.108033
  5.111832   0.106128
  5.115024   0.104302
  5.118217   0.102498
  5.121409   0.100711
   5.12460    0.09898
   5.12779    0.09738
   5.13099    0.09596
   5.13418    0.09475
   5.13737    0.09378
   5.14056    0.09302
   5.14376    0.09244
   5.14695    0.09202
   5.15014    0.09174
   5.15333    0.09164
   5.15653    0.09177
   5.15972    0.09222
   5.16291    0.09307
   5.16610    0.09442
   5.16930    0.09634
   5.17249    0.09891
  5.175680   0.102170
  5.178873   0.106154
  5.182065   0.110868
  5.185257   0.116285
  5.188450   0.122329
  5.191642   0.128864
  5.194835   0.135678
  5.198027   0.142485
  5.201220   0.148925
  5.204412   0.154593
  5.207604   0.159086
  5.210797   0.162065
  5.213989   0.163322
  5.217182   0.162836
  5.220374   0.160786
  5.223567   0.157524
  5.226758   0.153502
  5.229951   0.149201
  5.233144   0.145060
  5.236336   0.141443
  5.239529   0.138621
  5.242721   0.136783
  5.245913   0.136054
  5.249105   0.136509
  5.252298   0.138190
  5.255491   0.141119
  5.258683   0.145295
  5.261876   0.150702
  5.265068   0.157292
  5.268260   0.164964
  5.271452   0.173534
  5.274645   0.182697
  5.277838   0.191990
  5.281030   0.200788
  5.284222   0.208330
  5.287415   0.213811
  5.290607   0.216513
  5.293800   0.215964
  5.296992   0.212050
  5.300184   0.205046
  5.303377   0.195541
  5.306569   0.184296
  5.309762   0.172095
  5.312954   0.159624
  5.316147   0.147418
  5.319339   0.135838
  5.322531   0.125099
  5.325724   0.115303
  5.328916   0.106472
   5.33211    0.09858
   5.33530    0.09156
   5.33849    0.08535
   5.34169    0.07988
   5.34488    0.07506
   5.34807    0.07083
   5.35126    0.06713
   5.35446    0.06389
   5.35765    0.06105
   5.36084    0.05857
   5.36403    0.05640
   5.36723    0.05447
   5.37042    0.05276
   5.37361    0.05121
   5.37680    0.04981
   5.37999    0.04852
   5.38319    0.04735
   5.38638    0.04630
   5.38957    0.04538
   5.39276    0.04460
   5.39596    0.04397
   5.39915    0.04349
   5.40234    0.04317
   5.40553    0.04299
   5.40873    0.04296
   5.41192    0.04304
   5.41511    0.04322
   5.41830    0.04348
   5.42150    0.04381
   5.42469    0.04421
   5.42788    0.04467
   5.43107    0.04523
   5.43427    0.04592
   5.43746    0.04678
   5.44065    0.04786
   5.44384    0.04919
   5.44704    0.05083
   5.45023    0.05281
   5.45342    0.05517
   5.45661    0.05796
   5.45981    0.06120
   5.46300    0.06494
   5.46619    0.06919
   5.46938    0.07394
   5.47257    0.07917
   5.47577    0.08478
   5.47896    0.09062
   5.48215    0.09644
  5.485344   0.101925
  5.488537   0.106680
  5.491729   0.110299
  5.494922   0.112441
  5.498115   0.112907
  5.501307   0.111699
  5.504499   0.109017
  5.507691   0.105212
  5.510884   0.100704
   5.51408    0.09590
   5.51727    0.09115
   5.52046    0.08671
   5.52365    0.08274
   5.52685    0.07934
   5.53004    0.07653
   5.53323    0.07430
   5.53642    0.07260
   5.53962    0.07137
   5.54281    0.07051
   5.54600    0.06994
   5.54919    0.06958
   5.55239    0.06932
   5.55558    0.06905
   5.55877    0.06867
   5.56196    0.06806
   5.56516    0.06711
   5.56835    0.06575
   5.57154    0.06394
   5.57473    0.06168
   5.57792    0.05904
   5.58112    0.05609
   5.58431    0.05295
   5.58750    0.04974
   5.59069    0.04656
   5.59389    0.04351
   5.59708    0.04062
   5.60027    0.03795
   5.60346    0.03550
   5.60666    0.03328
   5.60985    0.03127
   5.61304    0.02946
   5.61623    0.02783
   5.61943    0.02637
   5.62262    0.02506
   5.62581    0.02388
   5.62900    0.02282
   5.63220    0.02186
   5.63539    0.02100
   5.63858    0.02023
   5.64177    0.01953
   5.64497    0.01890
   5.64816    0.01833
   5.65135    0.01781
   5.65454    0.01735
   5.65773    0.01694
   5.66093    0.01657
   5.66412    0.01625
   5.66731    0.01596
   5.67050    0.01572
   5.67370    0.01551
   5.67689    0.01533
   5.68008    0.01520
   5.68327    0.01509
   5.68647    0.01503
   5.68966    0.01501
   5.69285    0.01502
   5.69604    0.01508
   5.69924    0.01518
   5.70243    0.01534
   5.70562    0.01554
   5.70881    0.01580
   5.71201    0.01613
   5.71520    0.01652
   5.71839    0.01699
   5.72158    0.01754
   5.72478    0.01817
   5.72797    0.01889
   5.73116    0.01968
   5.73435    0.02055
   5.73755    0.02148
   5.74074    0.02243
   5.74393    0.02336
   5.74712    0.02424
   5.75032    0.02502
   5.75351    0.02565
   5.75670    0.02613
   5.75989    0.02644
   5.76308    0.02660
   5.76628    0.02662
   5.76947    0.02653
   5.77266    0.02633
   5.77585    0.02602
   5.77905    0.02559
   5.78224    0.02505
   5.78543    0.02441
   5.78862    0.02367
   5.79182    0.02288
   5.79501    0.02206
   5.79820    0.02125
   5.80139    0.02048
   5.80459    0.01977
   5.80778    0.01914
   5.81097    0.01860
   5.81416    0.01817
   5.81736    0.01784
   5.82055    0.01761
   5.82374    0.01747
   5.82693    0.01742
   5.83013    0.01744
   5.83332    0.01752
   5.83651    0.01764
   5.83970    0.01779
   5.84290    0.01795
   5.84609    0.01812
   5.84928    0.01829
   5.85247    0.01846
   5.85566    0.01867
   5.85886    0.01892
   5.86205    0.01924
   5.86524    0.01966
   5.86843    0.02019
   5.87163    0.02085
   5.87482    0.02164
   5.87801    0.02256
   5.88120    0.02362
   5.88440    0.02479
   5.88759    0.02604
   5.89078    0.02731
   5.89397    0.02853
   5.89717    0.02961
   5.90036    0.03046
   5.90355    0.03100
   5.90674    0.03117
   5.90994    0.03097
   5.91313    0.03045
   5.91632    0.02967
   5.91951    0.02875
   5.92271    0.02776
   5.92590    0.02681
   5.92909    0.02594
   5.93228    0.02521
   5.93548    0.02465
   5.93867    0.02427
   5.94186    0.02409
   5.94505    0.02410
   5.94825    0.02432
   5.95144    0.02473
   5.95463    0.02533
   5.95782    0.02611
   5.96101    0.02704
   5.96421    0.02809
   5.96740    0.02918
   5.97059    0.03026
   5.97378    0.03123
   5.97698    0.03199
   5.98017    0.03246
   5.98336    0.03260
   5.98655    0.03240
   5.98975    0.03190
   5.99294    0.03118
   5.99613    0.03035
   5.99932    0.02949
   6.00252    0.02868
   6.00571    0.02801
   6.00890    0.02750
   6.01209    0.02720
   6.01529    0.02713
   6.01848    0.02730
   6.02167    0.02772
   6.02486    0.02839
   6.02806    0.02930
   6.03125    0.03044
   6.03444    0.03177
   6.03763    0.03324
   6.04082    0.03479
   6.04402    0.03631
   6.04721    0.03767
   6.05040    0.03874
   6.05360    0.03940
   6.05679    0.03955
   6.05998    0.03914
   6.06317    0.03820
   6.06636    0.03678
   6.06956    0.03499
   6.07275    0.03295
   6.07594    0.03078
   6.07913    0.02859
   6.08233    0.02646
   6.08552    0.02444
   6.08871    0.02256
   6.09190    0.02085
   6.09510    0.01930
   6.09829    0.01791
   6.10148    0.01666
   6.10467    0.01554
   6.10787    0.01455
   6.11106    0.01366
   6.11425    0.01287
   6.11744    0.01217
   6.12064    0.01154
   6.12383    0.01097
   6.12702    0.01047
   6.13021    0.01001
    6.1334     0.0096
    6.1366     0.0092
    6.1398     0.0089
    6.1430     0.0086
    6.1462     0.0084
    6.1494     0.0081
    6.1526     0.0079
    6.1558     0.0078
    6.1589     0.0076
    6.1621     0.0075
    6.1653     0.0074
    6.1685     0.0073
    6.1717     0.0072
    6.1749     0.0072
    6.1781     0.0071
    6.1813     0.0071
    6.1845     0.0072
    6.1877     0.0072
    6.1909     0.0073
    6.1941     0.0074
    6.1973     0.0076
    6.2004     0.0078
    6.2036     0.0080
    6.2068     0.0083
    6.2100     0.0086
    6.2132     0.0090
    6.2164     0.0094
    6.2196     0.0098
   6.22279    0.01030
   6.22599    0.01074
   6.22918    0.01115
   6.23237    0.01148
   6.23556    0.01170
   6.23876    0.01179
   6.24195    0.01171
   6.24514    0.01148
   6.24833    0.01111
   6.25152    0.01065
   6.25472    0.01011
    6.2579     0.0095
    6.2611     0.0090
    6.2643     0.0084
    6.2675     0.0079
    6.2707     0.0074
    6.2739     0.0070
    6.2771     0.0066
  6.280     0.6229E-2
  6.283     0.5906E-2
  6.287     0.5615E-2
  6.290     0.5354E-2
  6.293     0.5119E-2
  6.296     0.4908E-2
  6.299     0.4716E-2
  6.303     0.4543E-2
  6.306     0.4385E-2
  6.309     0.4241E-2
  6.312     0.4109E-2
  6.315     0.3989E-2
  6.319     0.3878E-2
  6.322     0.3775E-2
  6.325     0.3680E-2
  6.328     0.3592E-2
  6.331     0.3510E-2
  6.335     0.3434E-2
  6.338     0.3362E-2
  6.341     0.3295E-2
  6.344     0.3232E-2
  6.347     0.3172E-2
  6.350     0.3116E-2
  6.354     0.3063E-2
  6.357     0.3013E-2
  6.360     0.2965E-2
  6.363     0.2919E-2
  6.366     0.2876E-2
  6.370     0.2835E-2
  6.373     0.2795E-2
  6.376     0.2757E-2
  6.379     0.2721E-2
  6.382     0.2686E-2
  6.386     0.2653E-2
  6.389     0.2620E-2
  6.392     0.2589E-2
  6.395     0.2559E-2
  6.398     0.2531E-2
  6.402     0.2503E-2
  6.405     0.2476E-2
  6.408     0.2450E-2
  6.411     0.2424E-2
  6.414     0.2400E-2
  6.418     0.2376E-2
  6.421     0.2353E-2
  6.424     0.2330E-2
  6.427     0.2308E-2
  6.430     0.2287E-2
  6.433     0.2266E-2
  6.437     0.2246E-2
  6.440     0.2226E-2
  6.443     0.2207E-2
  6.446     0.2188E-2
  6.449     0.2170E-2
  6.453     0.2152E-2
  6.456     0.2135E-2
  6.459     0.2118E-2
  6.462     0.2101E-2
  6.465     0.2084E-2
  6.469     0.2068E-2
  6.472     0.2053E-2
  6.475     0.2037E-2
  6.478     0.2022E-2
  6.481     0.2007E-2
  6.485     0.1993E-2
  6.488     0.1978E-2
  6.491     0.1964E-2
  6.494     0.1951E-2
  6.497     0.1937E-2
  6.501     0.1924E-2
  6.504     0.1911E-2
  6.507     0.1898E-2
  6.510     0.1885E-2
  6.513     0.1873E-2
  6.516     0.1861E-2
  6.520     0.1849E-2
  6.523     0.1837E-2
  6.526     0.1825E-2
  6.529     0.1814E-2
  6.532     0.1802E-2
  6.536     0.1791E-2
  6.539     0.1780E-2
  6.542     0.1770E-2
  6.545     0.1759E-2
  6.548     0.1748E-2
  6.552     0.1738E-2
  6.555     0.1728E-2
  6.558     0.1718E-2
  6.561     0.1708E-2
  6.564     0.1698E-2
  6.568     0.1688E-2
  6.571     0.1679E-2
  6.574     0.1669E-2
  6.577     0.1660E-2
  6.580     0.1651E-2
  6.584     0.1642E-2
  6.587     0.1633E-2
  6.590     0.1624E-2
  6.593     0.1615E-2
  6.596     0.1606E-2
  6.599     0.1598E-2
  6.603     0.1589E-2
  6.606     0.1581E-2
  6.609     0.1573E-2
  6.612     0.1564E-2
  6.615     0.1556E-2
  6.619     0.1548E-2
  6.622     0.1540E-2
  6.625     0.1533E-2
  6.628     0.1525E-2
  6.631     0.1517E-2
  6.635     0.1510E-2
  6.638     0.1502E-2
  6.641     0.1495E-2
  6.644     0.1487E-2
  6.647     0.1480E-2
  6.651     0.1473E-2
  6.654     0.1466E-2
  6.657     0.1459E-2
  6.660     0.1452E-2
  6.663     0.1445E-2
  6.667     0.1438E-2
  6.670     0.1431E-2
  6.673     0.1424E-2
  6.676     0.1418E-2
  6.679     0.1411E-2
  6.683     0.1405E-2
  6.686     0.1398E-2
  6.689     0.1392E-2
  6.692     0.1385E-2
  6.695     0.1379E-2
  6.698     0.1373E-2
  6.702     0.1367E-2
  6.705     0.1361E-2
  6.708     0.1354E-2
  6.711     0.1348E-2
  6.714     0.1342E-2
  6.718     0.1337E-2
  6.721     0.1331E-2
  6.724     0.1325E-2
  6.727     0.1319E-2
  6.730     0.1313E-2
  6.734     0.1308E-2
  6.737     0.1302E-2
# 
# 04/27/2021 at 16:16 YPP @ lux-1 [start]
# 04/27/2021 at 16:16             [end]
#  
# Timing   [Min/Max/Average]: 03s/03s/03s
#
# .-Input file : amp.in
# | excitons                     # [R] Excitons
# | amplitude                    # [R] Amplitude
# | BoseTemp= 0.000000     eV    # Bosonic Temperature
# | States= "1 - 9"              # Index of the BS state(s)
# | #DipWeight                   #  Weight the contribution to the exciton WFs with the dipoles
# | Degen_Step=0.1000E-4   eV    # Maximum energy separation of two degenerate states
